ORNL DXTL CAMERA
Machine code:-20772
Run number:13592
Title:Sh1

Sample Thickness (cm):   0.385
Wavelength (nm):   .25900
Transmission:   0.790
Absolute Intensity Factor:   1.000000
Time interval (sec):     100
Average Monitor Count: 4527947

Created Thursday, May 27th, 1999 at 03:39:38

2THETA (AS)   Q/nm^-1         I(Q)     Timer   Monitor

  60.000  0.00070568       5431      3000   4464647
  70.000  0.00082329       4182      3000   4401065
  80.000  0.00094090       3141      3000   4334616
  90.000  0.00105852       2421      3000   4301441
 100.000  0.00117613       2123      3000   4286148
 110.000  0.00129374       1803      3000   4244764
 120.000  0.00141135       1679      3000   4271777
 130.000  0.00152897       1409      3000   4340000
 140.000  0.00164658       1231      3000   4377947
 150.000  0.00176419       1190      3000   4400035
 160.000  0.00188181       1117      3000   4435740
 170.000  0.00199942       1062      3000   4467954
 180.000  0.00211703        878      3000   4507830
 190.000  0.00223465        863      3000   4542632
 200.000  0.00235226        821      3000   4598487
 210.000  0.00246987        783      3000   4676243
 220.000  0.00258748        818      3000   4748794
 230.000  0.00270510        731      3000   4821666
 240.000  0.00282271        714      3000   4904793
 250.000  0.00294032        674      3000   4952824
 260.000  0.00305794        682      3000   5007478
